Wavelength (nm),
,CG1w
,9
510,1000
511.0599976,1000
511.9599915,448.2838745
513.0300293,149.9611053
513.9299927,53.49890518
515,26.81666946
516.0599976,22.33122253
516.960022,19.86954117
518.0300293,18.80824661
518.9299927,18.85035133
520,17.69713783
521.039978,16.77381516
521.9400024,16.13417435
522.9799805,16.66338348
524.0200195,15.98137093
525.0700073,16.29401207
525.9699707,17.41199875
527.0100098,17.37798691
528.0499878,16.20158386
528.9500122,16.75660515
530,16.05942154
531.0200195,14.94112015
532.0499878,13.67584229
532.9400024,14.16359711
533.9699707,14.37312794
535,13.14654732
536.0200195,12.55458164
537.0499878,12.14430714
537.9400024,11.72381592
538.9699707,11.70303822
540,11.00233269
541.039978,10.99345112
541.9400024,10.72248077
542.9799805,10.20866966
544.0200195,9.73237133
545.0700073,9.069070816
545.9699707,8.348581314
547.0100098,8.701454163
548.0499878,7.896042347
548.9500122,7.280943871
550,7.63171196
551.039978,6.868002892
551.9400024,6.611917496
552.9799805,6.223808765
554.0200195,6.563518524
555.0700073,5.707476616
555.9699707,5.852568626
557.0100098,5.709609032
558.0499878,5.316761494
558.9500122,4.878222942
560,5.400876999
561.0200195,4.752542496
562.0499878,4.808414936
562.9400024,4.564940929
563.9699707,4.599524498
565,4.288913727
566.0200195,4.285694122
567.0499878,4.364281654
567.9400024,3.98738265
568.9699707,3.842053652
570,3.976442814
571.0200195,3.838376045
572.0499878,4.077894211
572.9400024,3.516201258
573.9699707,3.208701849
575,3.675185919
576.0200195,3.554766655
577.0499878,3.315385818
577.9400024,3.022514582
578.9699707,3.06727457
580,2.613066673
581.0200195,2.923335314
582.0499878,2.909084082
582.9400024,2.45961237
583.9699707,2.331415653
585,2.221565008
586.0200195,2.465624332
587.0499878,2.060614347
587.9400024,2.519989252
588.9699707,2.18601203
590,1.856964231
591.0200195,2.139991045
592.0499878,2.199547291
592.9400024,1.900114894
593.9699707,2.007543564
595,2.007360935
596.0200195,1.734531879
597.0499878,1.726760507
597.9400024,1.672560215
598.9699707,1.717352748
600,1.730566263
,
CG_E0,
Collection Time: 3/5/2018 10:37:41 PM,
Operator Name  :,
Scan Software Version: 1.2(147),
Parameter List :,
Instrument                        Cary Eclipse,
Instrument Serial Number          MY17190007,
Data mode                         Fluorescence,
Scan mode                         Emission,
X Mode                            Wavelength (nm),
Start (nm)                        510.00,
Stop (nm)                         600.00,
Ex. Wavelength (nm)               506.00,
Ex. Slit (nm)                     5,
Em. Slit (nm)                     5,
Scan rate (nm/min)                120.00,
Data interval (nm)                1.0000,
Averaging Time (s)                0.5000,
Excitation filter                 335 - 620 nm,
Emission filter                   Open,
PMT voltage (V)                   High,
Corrected spectra                 OFF,
Method Log     :,
Method Name    : C:\USERS\AGILENT\DOCUMENTS\FPSI\PHOTOBLEACHINGTESTS.FMSW,
Date/Time stamp: 1/26/2018 5:56:29 PM,
Method Modifications:,
User Delta Stop Changed: 8/31/2017 1:44:06 PM,
User Delta Increment Changed: 8/31/2017 1:44:06 PM,
Excitation Wavelength Changed: 8/31/2017 1:44:06 PM,
Excitation Wavelength Changed: 8/31/2017 2:01:39 PM,
Excitation Wavelength Changed: 8/31/2017 2:15:07 PM,
Excitation Wavelength Changed: 9/2/2017 6:47:17 PM,
Emission Wavelength Changed: 9/2/2017 6:49:15 PM,
Instrument mode: Changed: 9/4/2017 3:26:33 PM,
Ex. Slit Width (nm): Changed: 9/4/2017 3:26:33 PM,
Em. Slit Width (nm): Changed: 9/4/2017 3:26:33 PM,
Scan Control Changed: 9/4/2017 3:26:33 PM,
Instrument mode: Changed: 9/4/2017 3:27:51 PM,
Ex. Slit Width (nm): Changed: 9/4/2017 3:27:51 PM,
Em. Slit Width (nm): Changed: 9/4/2017 3:27:51 PM,
Current Method Changed: 1/25/2018 10:01:26 PM,
Excitation Filter: Changed: 1/25/2018 10:07:38 PM,
Scan Control Changed: 1/25/2018 10:07:38 PM,
Excitation Wavelength Changed: 1/25/2018 10:07:38 PM,
Emission Wavelength Changed: 1/25/2018 10:07:38 PM,
Scan Control Changed: 1/25/2018 10:08:16 PM,
Ave. time (s): Changed: 1/25/2018 10:08:16 PM,
Scan Control Changed: 1/25/2018 10:10:15 PM,
Ave. time (s): Changed: 1/25/2018 10:10:15 PM,
Data interval: Changed: 1/25/2018 10:10:15 PM,
PMT Volts Changed: 1/25/2018 10:11:17 PM,
Scan mode: Changed: 1/25/2018 10:11:17 PM,
Emission PMT (V): Changed: 1/25/2018 10:11:17 PM,
Excitation Wavelength Changed: 1/25/2018 10:11:17 PM,
Emission Wavelength Changed: 1/25/2018 10:11:17 PM,
PMT Volts Changed: 1/25/2018 10:12:03 PM,
Scan mode: Changed: 1/25/2018 10:12:03 PM,
Emission PMT (V): Changed: 1/25/2018 10:12:03 PM,
Excitation Wavelength Changed: 1/25/2018 10:12:03 PM,
Emission Wavelength Changed: 1/25/2018 10:12:03 PM,
Ex. Slit Width (nm): Changed: 1/25/2018 10:13:02 PM,
Em. Slit Width (nm): Changed: 1/25/2018 10:13:02 PM,
Scan Control Changed: 1/25/2018 10:13:02 PM,
Ave. time (s): Changed: 1/25/2018 10:13:02 PM,
Data interval: Changed: 1/25/2018 10:13:02 PM,
Ex. Slit Width (nm): Changed: 1/25/2018 10:14:01 PM,
Em. Slit Width (nm): Changed: 1/25/2018 10:14:01 PM,
Add Text to graph Changed: 1/25/2018 10:38:26 PM,
Add Text to graph Changed: 1/25/2018 10:38:26 PM,
Add Text to graph Changed: 1/25/2018 10:38:26 PM,
Peak Style Changed: 1/25/2018 10:38:51 PM,
Peak Style Changed: 1/25/2018 10:38:51 PM,
Peak Style Changed: 1/25/2018 10:38:51 PM,
Peak Style Changed: 1/25/2018 10:38:51 PM,
Current Method Changed: 3/5/2018 10:34:13 PM,
PMT Volts Changed: 3/5/2018 10:35:05 PM,
Em. Slit Width (nm): Changed: 3/5/2018 10:35:05 PM,
User Delta Stop Changed: 3/5/2018 10:35:05 PM,
Emission PMT (V): Changed: 3/5/2018 10:35:05 PM,
Excitation Wavelength Changed: 3/5/2018 10:35:05 PM,
Emission Wavelength Changed: 3/5/2018 10:35:05 PM,
Ex. Slit Width (nm): Changed: 3/5/2018 10:36:25 PM,
End Method Modifications,
,
CG_E0,
Collection Time: 3/5/2018 10:40:45 PM,
Operator Name  :,
Scan Software Version: 1.2(147),
Parameter List :,
Instrument                        Cary Eclipse,
Instrument Serial Number          MY17190007,
Data mode                         Fluorescence,
Scan mode                         Emission,
X Mode                            Wavelength (nm),
Start (nm)                        510.00,
Stop (nm)                         600.00,
Ex. Wavelength (nm)               506.00,
Ex. Slit (nm)                     5,
Em. Slit (nm)                     5,
Scan rate (nm/min)                120.00,
Data interval (nm)                1.0000,
Averaging Time (s)                0.5000,
Excitation filter                 335 - 620 nm,
Emission filter                   Open,
PMT voltage (V)                   High,
Corrected spectra                 OFF,
Method Log     :,
Method Name    : C:\USERS\AGILENT\DOCUMENTS\FPSI\PHOTOBLEACHINGTESTS.FMSW,
Date/Time stamp: 1/26/2018 5:56:29 PM,
Method Modifications:,
User Delta Stop Changed: 8/31/2017 1:44:06 PM,
User Delta Increment Changed: 8/31/2017 1:44:06 PM,
Excitation Wavelength Changed: 8/31/2017 1:44:06 PM,
Excitation Wavelength Changed: 8/31/2017 2:01:39 PM,
Excitation Wavelength Changed: 8/31/2017 2:15:07 PM,
Excitation Wavelength Changed: 9/2/2017 6:47:17 PM,
Emission Wavelength Changed: 9/2/2017 6:49:15 PM,
Instrument mode: Changed: 9/4/2017 3:26:33 PM,
Ex. Slit Width (nm): Changed: 9/4/2017 3:26:33 PM,
Em. Slit Width (nm): Changed: 9/4/2017 3:26:33 PM,
Scan Control Changed: 9/4/2017 3:26:33 PM,
Instrument mode: Changed: 9/4/2017 3:27:51 PM,
Ex. Slit Width (nm): Changed: 9/4/2017 3:27:51 PM,
Em. Slit Width (nm): Changed: 9/4/2017 3:27:51 PM,
Current Method Changed: 1/25/2018 10:01:26 PM,
Excitation Filter: Changed: 1/25/2018 10:07:38 PM,
Scan Control Changed: 1/25/2018 10:07:38 PM,
Excitation Wavelength Changed: 1/25/2018 10:07:38 PM,
Emission Wavelength Changed: 1/25/2018 10:07:38 PM,
Scan Control Changed: 1/25/2018 10:08:16 PM,
Ave. time (s): Changed: 1/25/2018 10:08:16 PM,
Scan Control Changed: 1/25/2018 10:10:15 PM,
Ave. time (s): Changed: 1/25/2018 10:10:15 PM,
Data interval: Changed: 1/25/2018 10:10:15 PM,
PMT Volts Changed: 1/25/2018 10:11:17 PM,
Scan mode: Changed: 1/25/2018 10:11:17 PM,
Emission PMT (V): Changed: 1/25/2018 10:11:17 PM,
Excitation Wavelength Changed: 1/25/2018 10:11:17 PM,
Emission Wavelength Changed: 1/25/2018 10:11:17 PM,
PMT Volts Changed: 1/25/2018 10:12:03 PM,
Scan mode: Changed: 1/25/2018 10:12:03 PM,
Emission PMT (V): Changed: 1/25/2018 10:12:03 PM,
Excitation Wavelength Changed: 1/25/2018 10:12:03 PM,
Emission Wavelength Changed: 1/25/2018 10:12:03 PM,
Ex. Slit Width (nm): Changed: 1/25/2018 10:13:02 PM,
Em. Slit Width (nm): Changed: 1/25/2018 10:13:02 PM,
Scan Control Changed: 1/25/2018 10:13:02 PM,
Ave. time (s): Changed: 1/25/2018 10:13:02 PM,
Data interval: Changed: 1/25/2018 10:13:02 PM,
Ex. Slit Width (nm): Changed: 1/25/2018 10:14:01 PM,
Em. Slit Width (nm): Changed: 1/25/2018 10:14:01 PM,
Add Text to graph Changed: 1/25/2018 10:38:26 PM,
Add Text to graph Changed: 1/25/2018 10:38:26 PM,
Add Text to graph Changed: 1/25/2018 10:38:26 PM,
Peak Style Changed: 1/25/2018 10:38:51 PM,
Peak Style Changed: 1/25/2018 10:38:51 PM,
Peak Style Changed: 1/25/2018 10:38:51 PM,
Peak Style Changed: 1/25/2018 10:38:51 PM,
Current Method Changed: 3/5/2018 10:34:13 PM,
PMT Volts Changed: 3/5/2018 10:35:05 PM,
Em. Slit Width (nm): Changed: 3/5/2018 10:35:05 PM,
User Delta Stop Changed: 3/5/2018 10:35:05 PM,
Emission PMT (V): Changed: 3/5/2018 10:35:05 PM,
Excitation Wavelength Changed: 3/5/2018 10:35:05 PM,
Emission Wavelength Changed: 3/5/2018 10:35:05 PM,
Ex. Slit Width (nm): Changed: 3/5/2018 10:36:25 PM,
Overlayed Graphs Changed: 3/5/2018 10:40:01 PM,
End Method Modifications,
,
CG_E5,
Collection Time: 3/5/2018 10:56:05 PM,
Operator Name  :,
Scan Software Version: 1.2(147),
Parameter List :,
Instrument                        Cary Eclipse,
Instrument Serial Number          MY17190007,
Data mode                         Fluorescence,
Scan mode                         Emission,
X Mode                            Wavelength (nm),
Start (nm)                        510.00,
Stop (nm)                         600.00,
Ex. Wavelength (nm)               506.00,
Ex. Slit (nm)                     5,
Em. Slit (nm)                     5,
Scan rate (nm/min)                120.00,
Data interval (nm)                1.0000,
Averaging Time (s)                0.5000,
Excitation filter                 335 - 620 nm,
Emission filter                   Open,
PMT voltage (V)                   High,
Corrected spectra                 OFF,
Method Log     :,
Method Name    : C:\USERS\AGILENT\DOCUMENTS\FPSI\PHOTOBLEACHINGTESTS.FMSW,
Date/Time stamp: 1/26/2018 5:56:29 PM,
Method Modifications:,
User Delta Stop Changed: 8/31/2017 1:44:06 PM,
User Delta Increment Changed: 8/31/2017 1:44:06 PM,
Excitation Wavelength Changed: 8/31/2017 1:44:06 PM,
Excitation Wavelength Changed: 8/31/2017 2:01:39 PM,
Excitation Wavelength Changed: 8/31/2017 2:15:07 PM,
Excitation Wavelength Changed: 9/2/2017 6:47:17 PM,
Emission Wavelength Changed: 9/2/2017 6:49:15 PM,
Instrument mode: Changed: 9/4/2017 3:26:33 PM,
Ex. Slit Width (nm): Changed: 9/4/2017 3:26:33 PM,
Em. Slit Width (nm): Changed: 9/4/2017 3:26:33 PM,
Scan Control Changed: 9/4/2017 3:26:33 PM,
Instrument mode: Changed: 9/4/2017 3:27:51 PM,
Ex. Slit Width (nm): Changed: 9/4/2017 3:27:51 PM,
Em. Slit Width (nm): Changed: 9/4/2017 3:27:51 PM,
Current Method Changed: 1/25/2018 10:01:26 PM,
Excitation Filter: Changed: 1/25/2018 10:07:38 PM,
Scan Control Changed: 1/25/2018 10:07:38 PM,
Excitation Wavelength Changed: 1/25/2018 10:07:38 PM,
Emission Wavelength Changed: 1/25/2018 10:07:38 PM,
Scan Control Changed: 1/25/2018 10:08:16 PM,
Ave. time (s): Changed: 1/25/2018 10:08:16 PM,
Scan Control Changed: 1/25/2018 10:10:15 PM,
Ave. time (s): Changed: 1/25/2018 10:10:15 PM,
Data interval: Changed: 1/25/2018 10:10:15 PM,
PMT Volts Changed: 1/25/2018 10:11:17 PM,
Scan mode: Changed: 1/25/2018 10:11:17 PM,
Emission PMT (V): Changed: 1/25/2018 10:11:17 PM,
Excitation Wavelength Changed: 1/25/2018 10:11:17 PM,
Emission Wavelength Changed: 1/25/2018 10:11:17 PM,
PMT Volts Changed: 1/25/2018 10:12:03 PM,
Scan mode: Changed: 1/25/2018 10:12:03 PM,
Emission PMT (V): Changed: 1/25/2018 10:12:03 PM,
Excitation Wavelength Changed: 1/25/2018 10:12:03 PM,
Emission Wavelength Changed: 1/25/2018 10:12:03 PM,
Ex. Slit Width (nm): Changed: 1/25/2018 10:13:02 PM,
Em. Slit Width (nm): Changed: 1/25/2018 10:13:02 PM,
Scan Control Changed: 1/25/2018 10:13:02 PM,
Ave. time (s): Changed: 1/25/2018 10:13:02 PM,
Data interval: Changed: 1/25/2018 10:13:02 PM,
Ex. Slit Width (nm): Changed: 1/25/2018 10:14:01 PM,
Em. Slit Width (nm): Changed: 1/25/2018 10:14:01 PM,
Add Text to graph Changed: 1/25/2018 10:38:26 PM,
Add Text to graph Changed: 1/25/2018 10:38:26 PM,
Add Text to graph Changed: 1/25/2018 10:38:26 PM,
Peak Style Changed: 1/25/2018 10:38:51 PM,
Peak Style Changed: 1/25/2018 10:38:51 PM,
Peak Style Changed: 1/25/2018 10:38:51 PM,
Peak Style Changed: 1/25/2018 10:38:51 PM,
Current Method Changed: 3/5/2018 10:34:13 PM,
PMT Volts Changed: 3/5/2018 10:35:05 PM,
Em. Slit Width (nm): Changed: 3/5/2018 10:35:05 PM,
User Delta Stop Changed: 3/5/2018 10:35:05 PM,
Emission PMT (V): Changed: 3/5/2018 10:35:05 PM,
Excitation Wavelength Changed: 3/5/2018 10:35:05 PM,
Emission Wavelength Changed: 3/5/2018 10:35:05 PM,
Ex. Slit Width (nm): Changed: 3/5/2018 10:36:25 PM,
Overlayed Graphs Changed: 3/5/2018 10:40:01 PM,
End Method Modifications,
,
CG_10,
Collection Time: 3/5/2018 11:22:01 PM,
Operator Name  :,
Scan Software Version: 1.2(147),
Parameter List :,
Instrument                        Cary Eclipse,
Instrument Serial Number          MY17190007,
Data mode                         Fluorescence,
Scan mode                         Emission,
X Mode                            Wavelength (nm),
Start (nm)                        510.00,
Stop (nm)                         600.00,
Ex. Wavelength (nm)               506.00,
Ex. Slit (nm)                     5,
Em. Slit (nm)                     5,
Scan rate (nm/min)                120.00,
Data interval (nm)                1.0000,
Averaging Time (s)                0.5000,
Excitation filter                 335 - 620 nm,
Emission filter                   Open,
PMT voltage (V)                   High,
Corrected spectra                 OFF,
Method Log     :,
Method Name    : C:\USERS\AGILENT\DOCUMENTS\FPSI\PHOTOBLEACHINGTESTS.FMSW,
Date/Time stamp: 1/26/2018 5:56:29 PM,
Method Modifications:,
User Delta Stop Changed: 8/31/2017 1:44:06 PM,
User Delta Increment Changed: 8/31/2017 1:44:06 PM,
Excitation Wavelength Changed: 8/31/2017 1:44:06 PM,
Excitation Wavelength Changed: 8/31/2017 2:01:39 PM,
Excitation Wavelength Changed: 8/31/2017 2:15:07 PM,
Excitation Wavelength Changed: 9/2/2017 6:47:17 PM,
Emission Wavelength Changed: 9/2/2017 6:49:15 PM,
Instrument mode: Changed: 9/4/2017 3:26:33 PM,
Ex. Slit Width (nm): Changed: 9/4/2017 3:26:33 PM,
Em. Slit Width (nm): Changed: 9/4/2017 3:26:33 PM,
Scan Control Changed: 9/4/2017 3:26:33 PM,
Instrument mode: Changed: 9/4/2017 3:27:51 PM,
Ex. Slit Width (nm): Changed: 9/4/2017 3:27:51 PM,
Em. Slit Width (nm): Changed: 9/4/2017 3:27:51 PM,
Current Method Changed: 1/25/2018 10:01:26 PM,
Excitation Filter: Changed: 1/25/2018 10:07:38 PM,
Scan Control Changed: 1/25/2018 10:07:38 PM,
Excitation Wavelength Changed: 1/25/2018 10:07:38 PM,
Emission Wavelength Changed: 1/25/2018 10:07:38 PM,
Scan Control Changed: 1/25/2018 10:08:16 PM,
Ave. time (s): Changed: 1/25/2018 10:08:16 PM,
Scan Control Changed: 1/25/2018 10:10:15 PM,
Ave. time (s): Changed: 1/25/2018 10:10:15 PM,
Data interval: Changed: 1/25/2018 10:10:15 PM,
PMT Volts Changed: 1/25/2018 10:11:17 PM,
Scan mode: Changed: 1/25/2018 10:11:17 PM,
Emission PMT (V): Changed: 1/25/2018 10:11:17 PM,
Excitation Wavelength Changed: 1/25/2018 10:11:17 PM,
Emission Wavelength Changed: 1/25/2018 10:11:17 PM,
PMT Volts Changed: 1/25/2018 10:12:03 PM,
Scan mode: Changed: 1/25/2018 10:12:03 PM,
Emission PMT (V): Changed: 1/25/2018 10:12:03 PM,
Excitation Wavelength Changed: 1/25/2018 10:12:03 PM,
Emission Wavelength Changed: 1/25/2018 10:12:03 PM,
Ex. Slit Width (nm): Changed: 1/25/2018 10:13:02 PM,
Em. Slit Width (nm): Changed: 1/25/2018 10:13:02 PM,
Scan Control Changed: 1/25/2018 10:13:02 PM,
Ave. time (s): Changed: 1/25/2018 10:13:02 PM,
Data interval: Changed: 1/25/2018 10:13:02 PM,
Ex. Slit Width (nm): Changed: 1/25/2018 10:14:01 PM,
Em. Slit Width (nm): Changed: 1/25/2018 10:14:01 PM,
Add Text to graph Changed: 1/25/2018 10:38:26 PM,
Add Text to graph Changed: 1/25/2018 10:38:26 PM,
Add Text to graph Changed: 1/25/2018 10:38:26 PM,
Peak Style Changed: 1/25/2018 10:38:51 PM,
Peak Style Changed: 1/25/2018 10:38:51 PM,
Peak Style Changed: 1/25/2018 10:38:51 PM,
Peak Style Changed: 1/25/2018 10:38:51 PM,
Current Method Changed: 3/5/2018 10:34:13 PM,
PMT Volts Changed: 3/5/2018 10:35:05 PM,
Em. Slit Width (nm): Changed: 3/5/2018 10:35:05 PM,
User Delta Stop Changed: 3/5/2018 10:35:05 PM,
Emission PMT (V): Changed: 3/5/2018 10:35:05 PM,
Excitation Wavelength Changed: 3/5/2018 10:35:05 PM,
Emission Wavelength Changed: 3/5/2018 10:35:05 PM,
Ex. Slit Width (nm): Changed: 3/5/2018 10:36:25 PM,
Overlayed Graphs Changed: 3/5/2018 10:40:01 PM,
End Method Modifications,
,
CG_20,
Collection Time: 3/5/2018 11:43:35 PM,
Operator Name  :,
Scan Software Version: 1.2(147),
Parameter List :,
Instrument                        Cary Eclipse,
Instrument Serial Number          MY17190007,
Data mode                         Fluorescence,
Scan mode                         Emission,
X Mode                            Wavelength (nm),
Start (nm)                        510.00,
Stop (nm)                         600.00,
Ex. Wavelength (nm)               506.00,
Ex. Slit (nm)                     5,
Em. Slit (nm)                     5,
Scan rate (nm/min)                120.00,
Data interval (nm)                1.0000,
Averaging Time (s)                0.5000,
Excitation filter                 335 - 620 nm,
Emission filter                   Open,
PMT voltage (V)                   High,
Corrected spectra                 OFF,
Method Log     :,
Method Name    : C:\USERS\AGILENT\DOCUMENTS\FPSI\PHOTOBLEACHINGTESTS.FMSW,
Date/Time stamp: 1/26/2018 5:56:29 PM,
Method Modifications:,
User Delta Stop Changed: 8/31/2017 1:44:06 PM,
User Delta Increment Changed: 8/31/2017 1:44:06 PM,
Excitation Wavelength Changed: 8/31/2017 1:44:06 PM,
Excitation Wavelength Changed: 8/31/2017 2:01:39 PM,
Excitation Wavelength Changed: 8/31/2017 2:15:07 PM,
Excitation Wavelength Changed: 9/2/2017 6:47:17 PM,
Emission Wavelength Changed: 9/2/2017 6:49:15 PM,
Instrument mode: Changed: 9/4/2017 3:26:33 PM,
Ex. Slit Width (nm): Changed: 9/4/2017 3:26:33 PM,
Em. Slit Width (nm): Changed: 9/4/2017 3:26:33 PM,
Scan Control Changed: 9/4/2017 3:26:33 PM,
Instrument mode: Changed: 9/4/2017 3:27:51 PM,
Ex. Slit Width (nm): Changed: 9/4/2017 3:27:51 PM,
Em. Slit Width (nm): Changed: 9/4/2017 3:27:51 PM,
Current Method Changed: 1/25/2018 10:01:26 PM,
Excitation Filter: Changed: 1/25/2018 10:07:38 PM,
Scan Control Changed: 1/25/2018 10:07:38 PM,
Excitation Wavelength Changed: 1/25/2018 10:07:38 PM,
Emission Wavelength Changed: 1/25/2018 10:07:38 PM,
Scan Control Changed: 1/25/2018 10:08:16 PM,
Ave. time (s): Changed: 1/25/2018 10:08:16 PM,
Scan Control Changed: 1/25/2018 10:10:15 PM,
Ave. time (s): Changed: 1/25/2018 10:10:15 PM,
Data interval: Changed: 1/25/2018 10:10:15 PM,
PMT Volts Changed: 1/25/2018 10:11:17 PM,
Scan mode: Changed: 1/25/2018 10:11:17 PM,
Emission PMT (V): Changed: 1/25/2018 10:11:17 PM,
Excitation Wavelength Changed: 1/25/2018 10:11:17 PM,
Emission Wavelength Changed: 1/25/2018 10:11:17 PM,
PMT Volts Changed: 1/25/2018 10:12:03 PM,
Scan mode: Changed: 1/25/2018 10:12:03 PM,
Emission PMT (V): Changed: 1/25/2018 10:12:03 PM,
Excitation Wavelength Changed: 1/25/2018 10:12:03 PM,
Emission Wavelength Changed: 1/25/2018 10:12:03 PM,
Ex. Slit Width (nm): Changed: 1/25/2018 10:13:02 PM,
Em. Slit Width (nm): Changed: 1/25/2018 10:13:02 PM,
Scan Control Changed: 1/25/2018 10:13:02 PM,
Ave. time (s): Changed: 1/25/2018 10:13:02 PM,
Data interval: Changed: 1/25/2018 10:13:02 PM,
Ex. Slit Width (nm): Changed: 1/25/2018 10:14:01 PM,
Em. Slit Width (nm): Changed: 1/25/2018 10:14:01 PM,
Add Text to graph Changed: 1/25/2018 10:38:26 PM,
Add Text to graph Changed: 1/25/2018 10:38:26 PM,
Add Text to graph Changed: 1/25/2018 10:38:26 PM,
Peak Style Changed: 1/25/2018 10:38:51 PM,
Peak Style Changed: 1/25/2018 10:38:51 PM,
Peak Style Changed: 1/25/2018 10:38:51 PM,
Peak Style Changed: 1/25/2018 10:38:51 PM,
Current Method Changed: 3/5/2018 10:34:13 PM,
PMT Volts Changed: 3/5/2018 10:35:05 PM,
Em. Slit Width (nm): Changed: 3/5/2018 10:35:05 PM,
User Delta Stop Changed: 3/5/2018 10:35:05 PM,
Emission PMT (V): Changed: 3/5/2018 10:35:05 PM,
Excitation Wavelength Changed: 3/5/2018 10:35:05 PM,
Emission Wavelength Changed: 3/5/2018 10:35:05 PM,
Ex. Slit Width (nm): Changed: 3/5/2018 10:36:25 PM,
Overlayed Graphs Changed: 3/5/2018 10:40:01 PM,
End Method Modifications,
,
CG_E21\,
Collection Time: 3/5/2018 11:45:44 PM,
Operator Name  :,
Scan Software Version: 1.2(147),
Parameter List :,
Instrument                        Cary Eclipse,
Instrument Serial Number          MY17190007,
Data mode                         Fluorescence,
Scan mode                         Emission,
X Mode                            Wavelength (nm),
Start (nm)                        510.00,
Stop (nm)                         600.00,
Ex. Wavelength (nm)               506.00,
Ex. Slit (nm)                     5,
Em. Slit (nm)                     5,
Scan rate (nm/min)                120.00,
Data interval (nm)                1.0000,
Averaging Time (s)                0.5000,
Excitation filter                 335 - 620 nm,
Emission filter                   Open,
PMT voltage (V)                   High,
Corrected spectra                 OFF,
Method Log     :,
Method Name    : C:\USERS\AGILENT\DOCUMENTS\FPSI\PHOTOBLEACHINGTESTS.FMSW,
Date/Time stamp: 1/26/2018 5:56:29 PM,
Method Modifications:,
User Delta Stop Changed: 8/31/2017 1:44:06 PM,
User Delta Increment Changed: 8/31/2017 1:44:06 PM,
Excitation Wavelength Changed: 8/31/2017 1:44:06 PM,
Excitation Wavelength Changed: 8/31/2017 2:01:39 PM,
Excitation Wavelength Changed: 8/31/2017 2:15:07 PM,
Excitation Wavelength Changed: 9/2/2017 6:47:17 PM,
Emission Wavelength Changed: 9/2/2017 6:49:15 PM,
Instrument mode: Changed: 9/4/2017 3:26:33 PM,
Ex. Slit Width (nm): Changed: 9/4/2017 3:26:33 PM,
Em. Slit Width (nm): Changed: 9/4/2017 3:26:33 PM,
Scan Control Changed: 9/4/2017 3:26:33 PM,
Instrument mode: Changed: 9/4/2017 3:27:51 PM,
Ex. Slit Width (nm): Changed: 9/4/2017 3:27:51 PM,
Em. Slit Width (nm): Changed: 9/4/2017 3:27:51 PM,
Current Method Changed: 1/25/2018 10:01:26 PM,
Excitation Filter: Changed: 1/25/2018 10:07:38 PM,
Scan Control Changed: 1/25/2018 10:07:38 PM,
Excitation Wavelength Changed: 1/25/2018 10:07:38 PM,
Emission Wavelength Changed: 1/25/2018 10:07:38 PM,
Scan Control Changed: 1/25/2018 10:08:16 PM,
Ave. time (s): Changed: 1/25/2018 10:08:16 PM,
Scan Control Changed: 1/25/2018 10:10:15 PM,
Ave. time (s): Changed: 1/25/2018 10:10:15 PM,
Data interval: Changed: 1/25/2018 10:10:15 PM,
PMT Volts Changed: 1/25/2018 10:11:17 PM,
Scan mode: Changed: 1/25/2018 10:11:17 PM,
Emission PMT (V): Changed: 1/25/2018 10:11:17 PM,
Excitation Wavelength Changed: 1/25/2018 10:11:17 PM,
Emission Wavelength Changed: 1/25/2018 10:11:17 PM,
PMT Volts Changed: 1/25/2018 10:12:03 PM,
Scan mode: Changed: 1/25/2018 10:12:03 PM,
Emission PMT (V): Changed: 1/25/2018 10:12:03 PM,
Excitation Wavelength Changed: 1/25/2018 10:12:03 PM,
Emission Wavelength Changed: 1/25/2018 10:12:03 PM,
Ex. Slit Width (nm): Changed: 1/25/2018 10:13:02 PM,
Em. Slit Width (nm): Changed: 1/25/2018 10:13:02 PM,
Scan Control Changed: 1/25/2018 10:13:02 PM,
Ave. time (s): Changed: 1/25/2018 10:13:02 PM,
Data interval: Changed: 1/25/2018 10:13:02 PM,
Ex. Slit Width (nm): Changed: 1/25/2018 10:14:01 PM,
Em. Slit Width (nm): Changed: 1/25/2018 10:14:01 PM,
Add Text to graph Changed: 1/25/2018 10:38:26 PM,
Add Text to graph Changed: 1/25/2018 10:38:26 PM,
Add Text to graph Changed: 1/25/2018 10:38:26 PM,
Peak Style Changed: 1/25/2018 10:38:51 PM,
Peak Style Changed: 1/25/2018 10:38:51 PM,
Peak Style Changed: 1/25/2018 10:38:51 PM,
Peak Style Changed: 1/25/2018 10:38:51 PM,
Current Method Changed: 3/5/2018 10:34:13 PM,
PMT Volts Changed: 3/5/2018 10:35:05 PM,
Em. Slit Width (nm): Changed: 3/5/2018 10:35:05 PM,
User Delta Stop Changed: 3/5/2018 10:35:05 PM,
Emission PMT (V): Changed: 3/5/2018 10:35:05 PM,
Excitation Wavelength Changed: 3/5/2018 10:35:05 PM,
Emission Wavelength Changed: 3/5/2018 10:35:05 PM,
Ex. Slit Width (nm): Changed: 3/5/2018 10:36:25 PM,
Overlayed Graphs Changed: 3/5/2018 10:40:01 PM,
End Method Modifications,
,
CG_E30,
Collection Time: 3/6/2018 12:01:01 AM,
Operator Name  :,
Scan Software Version: 1.2(147),
Parameter List :,
Instrument                        Cary Eclipse,
Instrument Serial Number          MY17190007,
Data mode                         Fluorescence,
Scan mode                         Emission,
X Mode                            Wavelength (nm),
Start (nm)                        510.00,
Stop (nm)                         600.00,
Ex. Wavelength (nm)               506.00,
Ex. Slit (nm)                     5,
Em. Slit (nm)                     5,
Scan rate (nm/min)                120.00,
Data interval (nm)                1.0000,
Averaging Time (s)                0.5000,
Excitation filter                 335 - 620 nm,
Emission filter                   Open,
PMT voltage (V)                   High,
Corrected spectra                 OFF,
Method Log     :,
Method Name    : C:\USERS\AGILENT\DOCUMENTS\FPSI\PHOTOBLEACHINGTESTS.FMSW,
Date/Time stamp: 1/26/2018 5:56:29 PM,
Method Modifications:,
User Delta Stop Changed: 8/31/2017 1:44:06 PM,
User Delta Increment Changed: 8/31/2017 1:44:06 PM,
Excitation Wavelength Changed: 8/31/2017 1:44:06 PM,
Excitation Wavelength Changed: 8/31/2017 2:01:39 PM,
Excitation Wavelength Changed: 8/31/2017 2:15:07 PM,
Excitation Wavelength Changed: 9/2/2017 6:47:17 PM,
Emission Wavelength Changed: 9/2/2017 6:49:15 PM,
Instrument mode: Changed: 9/4/2017 3:26:33 PM,
Ex. Slit Width (nm): Changed: 9/4/2017 3:26:33 PM,
Em. Slit Width (nm): Changed: 9/4/2017 3:26:33 PM,
Scan Control Changed: 9/4/2017 3:26:33 PM,
Instrument mode: Changed: 9/4/2017 3:27:51 PM,
Ex. Slit Width (nm): Changed: 9/4/2017 3:27:51 PM,
Em. Slit Width (nm): Changed: 9/4/2017 3:27:51 PM,
Current Method Changed: 1/25/2018 10:01:26 PM,
Excitation Filter: Changed: 1/25/2018 10:07:38 PM,
Scan Control Changed: 1/25/2018 10:07:38 PM,
Excitation Wavelength Changed: 1/25/2018 10:07:38 PM,
Emission Wavelength Changed: 1/25/2018 10:07:38 PM,
Scan Control Changed: 1/25/2018 10:08:16 PM,
Ave. time (s): Changed: 1/25/2018 10:08:16 PM,
Scan Control Changed: 1/25/2018 10:10:15 PM,
Ave. time (s): Changed: 1/25/2018 10:10:15 PM,
Data interval: Changed: 1/25/2018 10:10:15 PM,
PMT Volts Changed: 1/25/2018 10:11:17 PM,
Scan mode: Changed: 1/25/2018 10:11:17 PM,
Emission PMT (V): Changed: 1/25/2018 10:11:17 PM,
Excitation Wavelength Changed: 1/25/2018 10:11:17 PM,
Emission Wavelength Changed: 1/25/2018 10:11:17 PM,
PMT Volts Changed: 1/25/2018 10:12:03 PM,
Scan mode: Changed: 1/25/2018 10:12:03 PM,
Emission PMT (V): Changed: 1/25/2018 10:12:03 PM,
Excitation Wavelength Changed: 1/25/2018 10:12:03 PM,
Emission Wavelength Changed: 1/25/2018 10:12:03 PM,
Ex. Slit Width (nm): Changed: 1/25/2018 10:13:02 PM,
Em. Slit Width (nm): Changed: 1/25/2018 10:13:02 PM,
Scan Control Changed: 1/25/2018 10:13:02 PM,
Ave. time (s): Changed: 1/25/2018 10:13:02 PM,
Data interval: Changed: 1/25/2018 10:13:02 PM,
Ex. Slit Width (nm): Changed: 1/25/2018 10:14:01 PM,
Em. Slit Width (nm): Changed: 1/25/2018 10:14:01 PM,
Add Text to graph Changed: 1/25/2018 10:38:26 PM,
Add Text to graph Changed: 1/25/2018 10:38:26 PM,
Add Text to graph Changed: 1/25/2018 10:38:26 PM,
Peak Style Changed: 1/25/2018 10:38:51 PM,
Peak Style Changed: 1/25/2018 10:38:51 PM,
Peak Style Changed: 1/25/2018 10:38:51 PM,
Peak Style Changed: 1/25/2018 10:38:51 PM,
Current Method Changed: 3/5/2018 10:34:13 PM,
PMT Volts Changed: 3/5/2018 10:35:05 PM,
Em. Slit Width (nm): Changed: 3/5/2018 10:35:05 PM,
User Delta Stop Changed: 3/5/2018 10:35:05 PM,
Emission PMT (V): Changed: 3/5/2018 10:35:05 PM,
Excitation Wavelength Changed: 3/5/2018 10:35:05 PM,
Emission Wavelength Changed: 3/5/2018 10:35:05 PM,
Ex. Slit Width (nm): Changed: 3/5/2018 10:36:25 PM,
Overlayed Graphs Changed: 3/5/2018 10:40:01 PM,
End Method Modifications,
,
CG_E31,
Collection Time: 3/6/2018 12:04:49 AM,
Operator Name  :,
Scan Software Version: 1.2(147),
Parameter List :,
Instrument                        Cary Eclipse,
Instrument Serial Number          MY17190007,
Data mode                         Fluorescence,
Scan mode                         Emission,
X Mode                            Wavelength (nm),
Start (nm)                        510.00,
Stop (nm)                         600.00,
Ex. Wavelength (nm)               506.00,
Ex. Slit (nm)                     5,
Em. Slit (nm)                     5,
Scan rate (nm/min)                120.00,
Data interval (nm)                1.0000,
Averaging Time (s)                0.5000,
Excitation filter                 335 - 620 nm,
Emission filter                   Open,
PMT voltage (V)                   High,
Corrected spectra                 OFF,
Method Log     :,
Method Name    : C:\USERS\AGILENT\DOCUMENTS\FPSI\PHOTOBLEACHINGTESTS.FMSW,
Date/Time stamp: 1/26/2018 5:56:29 PM,
Method Modifications:,
User Delta Stop Changed: 8/31/2017 1:44:06 PM,
User Delta Increment Changed: 8/31/2017 1:44:06 PM,
Excitation Wavelength Changed: 8/31/2017 1:44:06 PM,
Excitation Wavelength Changed: 8/31/2017 2:01:39 PM,
Excitation Wavelength Changed: 8/31/2017 2:15:07 PM,
Excitation Wavelength Changed: 9/2/2017 6:47:17 PM,
Emission Wavelength Changed: 9/2/2017 6:49:15 PM,
Instrument mode: Changed: 9/4/2017 3:26:33 PM,
Ex. Slit Width (nm): Changed: 9/4/2017 3:26:33 PM,
Em. Slit Width (nm): Changed: 9/4/2017 3:26:33 PM,
Scan Control Changed: 9/4/2017 3:26:33 PM,
Instrument mode: Changed: 9/4/2017 3:27:51 PM,
Ex. Slit Width (nm): Changed: 9/4/2017 3:27:51 PM,
Em. Slit Width (nm): Changed: 9/4/2017 3:27:51 PM,
Current Method Changed: 1/25/2018 10:01:26 PM,
Excitation Filter: Changed: 1/25/2018 10:07:38 PM,
Scan Control Changed: 1/25/2018 10:07:38 PM,
Excitation Wavelength Changed: 1/25/2018 10:07:38 PM,
Emission Wavelength Changed: 1/25/2018 10:07:38 PM,
Scan Control Changed: 1/25/2018 10:08:16 PM,
Ave. time (s): Changed: 1/25/2018 10:08:16 PM,
Scan Control Changed: 1/25/2018 10:10:15 PM,
Ave. time (s): Changed: 1/25/2018 10:10:15 PM,
Data interval: Changed: 1/25/2018 10:10:15 PM,
PMT Volts Changed: 1/25/2018 10:11:17 PM,
Scan mode: Changed: 1/25/2018 10:11:17 PM,
Emission PMT (V): Changed: 1/25/2018 10:11:17 PM,
Excitation Wavelength Changed: 1/25/2018 10:11:17 PM,
Emission Wavelength Changed: 1/25/2018 10:11:17 PM,
PMT Volts Changed: 1/25/2018 10:12:03 PM,
Scan mode: Changed: 1/25/2018 10:12:03 PM,
Emission PMT (V): Changed: 1/25/2018 10:12:03 PM,
Excitation Wavelength Changed: 1/25/2018 10:12:03 PM,
Emission Wavelength Changed: 1/25/2018 10:12:03 PM,
Ex. Slit Width (nm): Changed: 1/25/2018 10:13:02 PM,
Em. Slit Width (nm): Changed: 1/25/2018 10:13:02 PM,
Scan Control Changed: 1/25/2018 10:13:02 PM,
Ave. time (s): Changed: 1/25/2018 10:13:02 PM,
Data interval: Changed: 1/25/2018 10:13:02 PM,
Ex. Slit Width (nm): Changed: 1/25/2018 10:14:01 PM,
Em. Slit Width (nm): Changed: 1/25/2018 10:14:01 PM,
Add Text to graph Changed: 1/25/2018 10:38:26 PM,
Add Text to graph Changed: 1/25/2018 10:38:26 PM,
Add Text to graph Changed: 1/25/2018 10:38:26 PM,
Peak Style Changed: 1/25/2018 10:38:51 PM,
Peak Style Changed: 1/25/2018 10:38:51 PM,
Peak Style Changed: 1/25/2018 10:38:51 PM,
Peak Style Changed: 1/25/2018 10:38:51 PM,
Current Method Changed: 3/5/2018 10:34:13 PM,
PMT Volts Changed: 3/5/2018 10:35:05 PM,
Em. Slit Width (nm): Changed: 3/5/2018 10:35:05 PM,
User Delta Stop Changed: 3/5/2018 10:35:05 PM,
Emission PMT (V): Changed: 3/5/2018 10:35:05 PM,
Excitation Wavelength Changed: 3/5/2018 10:35:05 PM,
Emission Wavelength Changed: 3/5/2018 10:35:05 PM,
Ex. Slit Width (nm): Changed: 3/5/2018 10:36:25 PM,
Overlayed Graphs Changed: 3/5/2018 10:40:01 PM,
End Method Modifications,
,
CG1w,
Collection Time: 3/12/2018 11:49:13 AM,
Operator Name  :,
Scan Software Version: 1.2(147),
Parameter List :,
Instrument                        Cary Eclipse,
Instrument Serial Number          MY17190007,
Data mode                         Fluorescence,
Scan mode                         Emission,
X Mode                            Wavelength (nm),
Start (nm)                        510.00,
Stop (nm)                         600.00,
Ex. Wavelength (nm)               506.00,
Ex. Slit (nm)                     5,
Em. Slit (nm)                     5,
Scan rate (nm/min)                120.00,
Data interval (nm)                1.0000,
Averaging Time (s)                0.5000,
Excitation filter                 335 - 620 nm,
Emission filter                   Open,
PMT voltage (V)                   High,
Corrected spectra                 OFF,
Method Log     :,
Method Name    : C:\USERS\AGILENT\DOCUMENTS\FPSI\PHOTOBLEACHINGTESTS.FMSW,
Date/Time stamp: 1/26/2018 5:56:29 PM,
Method Modifications:,
User Delta Stop Changed: 8/31/2017 1:44:06 PM,
User Delta Increment Changed: 8/31/2017 1:44:06 PM,
Excitation Wavelength Changed: 8/31/2017 1:44:06 PM,
Excitation Wavelength Changed: 8/31/2017 2:01:39 PM,
Excitation Wavelength Changed: 8/31/2017 2:15:07 PM,
Excitation Wavelength Changed: 9/2/2017 6:47:17 PM,
Emission Wavelength Changed: 9/2/2017 6:49:15 PM,
Instrument mode: Changed: 9/4/2017 3:26:33 PM,
Ex. Slit Width (nm): Changed: 9/4/2017 3:26:33 PM,
Em. Slit Width (nm): Changed: 9/4/2017 3:26:33 PM,
Scan Control Changed: 9/4/2017 3:26:33 PM,
Instrument mode: Changed: 9/4/2017 3:27:51 PM,
Ex. Slit Width (nm): Changed: 9/4/2017 3:27:51 PM,
Em. Slit Width (nm): Changed: 9/4/2017 3:27:51 PM,
Current Method Changed: 1/25/2018 10:01:26 PM,
Excitation Filter: Changed: 1/25/2018 10:07:38 PM,
Scan Control Changed: 1/25/2018 10:07:38 PM,
Excitation Wavelength Changed: 1/25/2018 10:07:38 PM,
Emission Wavelength Changed: 1/25/2018 10:07:38 PM,
Scan Control Changed: 1/25/2018 10:08:16 PM,
Ave. time (s): Changed: 1/25/2018 10:08:16 PM,
Scan Control Changed: 1/25/2018 10:10:15 PM,
Ave. time (s): Changed: 1/25/2018 10:10:15 PM,
Data interval: Changed: 1/25/2018 10:10:15 PM,
PMT Volts Changed: 1/25/2018 10:11:17 PM,
Scan mode: Changed: 1/25/2018 10:11:17 PM,
Emission PMT (V): Changed: 1/25/2018 10:11:17 PM,
Excitation Wavelength Changed: 1/25/2018 10:11:17 PM,
Emission Wavelength Changed: 1/25/2018 10:11:17 PM,
PMT Volts Changed: 1/25/2018 10:12:03 PM,
Scan mode: Changed: 1/25/2018 10:12:03 PM,
Emission PMT (V): Changed: 1/25/2018 10:12:03 PM,
Excitation Wavelength Changed: 1/25/2018 10:12:03 PM,
Emission Wavelength Changed: 1/25/2018 10:12:03 PM,
Ex. Slit Width (nm): Changed: 1/25/2018 10:13:02 PM,
Em. Slit Width (nm): Changed: 1/25/2018 10:13:02 PM,
Scan Control Changed: 1/25/2018 10:13:02 PM,
Ave. time (s): Changed: 1/25/2018 10:13:02 PM,
Data interval: Changed: 1/25/2018 10:13:02 PM,
Ex. Slit Width (nm): Changed: 1/25/2018 10:14:01 PM,
Em. Slit Width (nm): Changed: 1/25/2018 10:14:01 PM,
Add Text to graph Changed: 1/25/2018 10:38:26 PM,
Add Text to graph Changed: 1/25/2018 10:38:26 PM,
Add Text to graph Changed: 1/25/2018 10:38:26 PM,
Peak Style Changed: 1/25/2018 10:38:51 PM,
Peak Style Changed: 1/25/2018 10:38:51 PM,
Peak Style Changed: 1/25/2018 10:38:51 PM,
Peak Style Changed: 1/25/2018 10:38:51 PM,
Current Method Changed: 3/5/2018 10:34:13 PM,
PMT Volts Changed: 3/5/2018 10:35:05 PM,
Em. Slit Width (nm): Changed: 3/5/2018 10:35:05 PM,
User Delta Stop Changed: 3/5/2018 10:35:05 PM,
Emission PMT (V): Changed: 3/5/2018 10:35:05 PM,
Excitation Wavelength Changed: 3/5/2018 10:35:05 PM,
Emission Wavelength Changed: 3/5/2018 10:35:05 PM,
Ex. Slit Width (nm): Changed: 3/5/2018 10:36:25 PM,
Overlayed Graphs Changed: 3/5/2018 10:40:01 PM,
End Method Modifications,
,
CG1wkb,
Collection Time: 3/12/2018 11:50:10 AM,
Operator Name  :,
Scan Software Version: 1.2(147),
Parameter List :,
Instrument                        Cary Eclipse,
Instrument Serial Number          MY17190007,
Data mode                         Fluorescence,
Scan mode                         Emission,
X Mode                            Wavelength (nm),
Start (nm)                        510.00,
Stop (nm)                         600.00,
Ex. Wavelength (nm)               506.00,
Ex. Slit (nm)                     5,
Em. Slit (nm)                     5,
Scan rate (nm/min)                120.00,
Data interval (nm)                1.0000,
Averaging Time (s)                0.5000,
Excitation filter                 335 - 620 nm,
Emission filter                   Open,
PMT voltage (V)                   High,
Corrected spectra                 OFF,
Method Log     :,
Method Name    : C:\USERS\AGILENT\DOCUMENTS\FPSI\PHOTOBLEACHINGTESTS.FMSW,
Date/Time stamp: 1/26/2018 5:56:29 PM,
Method Modifications:,
User Delta Stop Changed: 8/31/2017 1:44:06 PM,
User Delta Increment Changed: 8/31/2017 1:44:06 PM,
Excitation Wavelength Changed: 8/31/2017 1:44:06 PM,
Excitation Wavelength Changed: 8/31/2017 2:01:39 PM,
Excitation Wavelength Changed: 8/31/2017 2:15:07 PM,
Excitation Wavelength Changed: 9/2/2017 6:47:17 PM,
Emission Wavelength Changed: 9/2/2017 6:49:15 PM,
Instrument mode: Changed: 9/4/2017 3:26:33 PM,
Ex. Slit Width (nm): Changed: 9/4/2017 3:26:33 PM,
Em. Slit Width (nm): Changed: 9/4/2017 3:26:33 PM,
Scan Control Changed: 9/4/2017 3:26:33 PM,
Instrument mode: Changed: 9/4/2017 3:27:51 PM,
Ex. Slit Width (nm): Changed: 9/4/2017 3:27:51 PM,
Em. Slit Width (nm): Changed: 9/4/2017 3:27:51 PM,
Current Method Changed: 1/25/2018 10:01:26 PM,
Excitation Filter: Changed: 1/25/2018 10:07:38 PM,
Scan Control Changed: 1/25/2018 10:07:38 PM,
Excitation Wavelength Changed: 1/25/2018 10:07:38 PM,
Emission Wavelength Changed: 1/25/2018 10:07:38 PM,
Scan Control Changed: 1/25/2018 10:08:16 PM,
Ave. time (s): Changed: 1/25/2018 10:08:16 PM,
Scan Control Changed: 1/25/2018 10:10:15 PM,
Ave. time (s): Changed: 1/25/2018 10:10:15 PM,
Data interval: Changed: 1/25/2018 10:10:15 PM,
PMT Volts Changed: 1/25/2018 10:11:17 PM,
Scan mode: Changed: 1/25/2018 10:11:17 PM,
Emission PMT (V): Changed: 1/25/2018 10:11:17 PM,
Excitation Wavelength Changed: 1/25/2018 10:11:17 PM,
Emission Wavelength Changed: 1/25/2018 10:11:17 PM,
PMT Volts Changed: 1/25/2018 10:12:03 PM,
Scan mode: Changed: 1/25/2018 10:12:03 PM,
Emission PMT (V): Changed: 1/25/2018 10:12:03 PM,
Excitation Wavelength Changed: 1/25/2018 10:12:03 PM,
Emission Wavelength Changed: 1/25/2018 10:12:03 PM,
Ex. Slit Width (nm): Changed: 1/25/2018 10:13:02 PM,
Em. Slit Width (nm): Changed: 1/25/2018 10:13:02 PM,
Scan Control Changed: 1/25/2018 10:13:02 PM,
Ave. time (s): Changed: 1/25/2018 10:13:02 PM,
Data interval: Changed: 1/25/2018 10:13:02 PM,
Ex. Slit Width (nm): Changed: 1/25/2018 10:14:01 PM,
Em. Slit Width (nm): Changed: 1/25/2018 10:14:01 PM,
Add Text to graph Changed: 1/25/2018 10:38:26 PM,
Add Text to graph Changed: 1/25/2018 10:38:26 PM,
Add Text to graph Changed: 1/25/2018 10:38:26 PM,
Peak Style Changed: 1/25/2018 10:38:51 PM,
Peak Style Changed: 1/25/2018 10:38:51 PM,
Peak Style Changed: 1/25/2018 10:38:51 PM,
Peak Style Changed: 1/25/2018 10:38:51 PM,
Current Method Changed: 3/5/2018 10:34:13 PM,
PMT Volts Changed: 3/5/2018 10:35:05 PM,
Em. Slit Width (nm): Changed: 3/5/2018 10:35:05 PM,
User Delta Stop Changed: 3/5/2018 10:35:05 PM,
Emission PMT (V): Changed: 3/5/2018 10:35:05 PM,
Excitation Wavelength Changed: 3/5/2018 10:35:05 PM,
Emission Wavelength Changed: 3/5/2018 10:35:05 PM,
Ex. Slit Width (nm): Changed: 3/5/2018 10:36:25 PM,
Overlayed Graphs Changed: 3/5/2018 10:40:01 PM,
End Method Modifications,